#  Table 3.8  Measured gamma-ray leakage spectrum from a Co sphere of 40 cm diameter.
#  ----------------------------------------------------------
#  Lower Energy  Upper Energy   Energy Spectrum     Error
#     [MeV]         [MeV]         [/MeV/S.n.]
#  ----------------------------------------------------------
   0.2500    2.000E-01     3.000E-01        1.681E-01      9.000E-04
   0.3500    3.000E-01     4.000E-01        3.046E-01      9.000E-04
   0.4500    4.000E-01     5.000E-01        2.485E-01      9.000E-04
   0.5500    5.000E-01     6.000E-01        2.007E-01      7.000E-04
   0.6500    6.000E-01     7.000E-01        2.250E-01      8.000E-04
   0.7500    7.000E-01     8.000E-01        2.181E-01      7.000E-04
   0.8500    8.000E-01     9.000E-01        1.927E-01      7.000E-04
   0.9500    9.000E-01     1.000E+00        1.933E-01      7.000E-04
   1.0500    1.000E+00     1.100E+00        2.054E-01      7.000E-04
   1.1500    1.100E+00     1.200E+00        1.764E-01      6.000E-04
   1.2500    1.200E+00     1.300E+00        1.512E-01      7.000E-04
   1.3500    1.300E+00     1.400E+00        1.362E-01      6.000E-04
   1.4500    1.400E+00     1.500E+00        1.019E-01      7.000E-04
   1.5500    1.500E+00     1.600E+00        7.746E-02      7.900E-04
   1.6500    1.600E+00     1.700E+00        6.857E-02      6.800E-04
   1.7500    1.700E+00     1.800E+00        5.999E-02      6.600E-04
   1.8500    1.800E+00     1.900E+00        5.309E-02      6.800E-04
   1.9500    1.900E+00     2.000E+00        4.879E-02      6.300E-04
   2.0500    2.000E+00     2.100E+00        4.534E-02      6.700E-04
   2.1500    2.100E+00     2.200E+00        4.342E-02      7.800E-04
   2.2500    2.200E+00     2.300E+00        4.279E-02      8.000E-04
   2.3500    2.300E+00     2.400E+00        4.197E-02      8.800E-04
   2.4500    2.400E+00     2.500E+00        4.041E-02      1.010E-03
   2.5500    2.500E+00     2.600E+00        3.791E-02      8.200E-04
   2.6500    2.600E+00     2.700E+00        3.477E-02      6.900E-04
   2.7500    2.700E+00     2.800E+00        3.190E-02      1.000E-03
   2.8500    2.800E+00     2.900E+00        2.991E-02      9.400E-04
   2.9500    2.900E+00     3.000E+00        2.873E-02      8.100E-04
   3.0500    3.000E+00     3.100E+00        2.804E-02      9.800E-04
   3.1500    3.100E+00     3.200E+00        2.757E-02      9.800E-04
   3.2500    3.200E+00     3.300E+00        2.695E-02      8.200E-04
   3.3500    3.300E+00     3.400E+00        2.600E-02      8.300E-04
   3.4500    3.400E+00     3.500E+00        2.494E-02      1.140E-03
   3.5500    3.500E+00     3.600E+00        2.394E-02      1.400E-03
   3.6500    3.600E+00     3.700E+00        2.280E-02      1.430E-03
   3.7500    3.700E+00     3.800E+00        2.142E-02      1.190E-03
   3.8500    3.800E+00     3.900E+00        2.008E-02      9.400E-04
   3.9500    3.900E+00     4.000E+00        1.911E-02      1.140E-03
   4.1000    4.000E+00     4.200E+00        1.851E-02      1.310E-03
   4.3000    4.200E+00     4.400E+00        1.757E-02      1.780E-03
   4.5000    4.400E+00     4.600E+00        1.478E-02      1.180E-03
   4.7000    4.600E+00     4.800E+00        1.229E-02      2.720E-03
   4.9000    4.800E+00     5.000E+00        1.263E-02      2.660E-03
   5.1000    5.000E+00     5.200E+00        1.552E-02      2.530E-03
   5.3000    5.200E+00     5.400E+00        1.633E-02      4.420E-03
   5.5000    5.400E+00     5.600E+00        1.238E-02      1.930E-03
   5.7000    5.600E+00     5.800E+00        8.061E-03      3.060E-03
   5.9000    5.800E+00     6.000E+00        7.517E-03      3.079E-03
   6.2500    6.000E+00     6.500E+00        9.080E-03      9.080E-04
   6.7500    6.500E+00     7.000E+00        9.394E-03      1.115E-03
   7.2500    7.000E+00     7.500E+00        4.306E-03      9.360E-04
   7.7500    7.500E+00     8.000E+00        4.850E-03      7.490E-04
   8.2500    8.000E+00     8.500E+00        2.359E-03      6.300E-04
   8.7500    8.500E+00     9.000E+00        2.359E-03      3.340E-04
   9.2500    9.000E+00     9.500E+00        6.343E-04      3.008E-04
   9.7500    9.500E+00     1.000E+01        1.250E-03      2.940E-04
  10.2500    1.000E+01     1.050E+01        2.130E-04      2.535E-04
  10.7500    1.050E+01     1.100E+01        7.436E-04      2.225E-04
#  ----------------------------------------------------------
