#  Table 3.5  Measured gamma-ray leakage spectrum from a Ti sphere of 40 cm diameter.
#  ----------------------------------------------------------
#  Lower Energy  Upper Energy   Energy Spectrum     Error
#     [MeV]         [MeV]         [/MeV/S.n.]
#  ----------------------------------------------------------
   0.5500    5.000E-01     6.000E-01        2.639E-01      6.000E-04
   0.6500    6.000E-01     7.000E-01        3.119E-01      6.000E-04
   0.7500    7.000E-01     8.000E-01        2.299E-01      5.000E-04
   0.8500    8.000E-01     9.000E-01        1.903E-01      5.000E-04
   0.9500    9.000E-01     1.000E+00        2.267E-01      5.000E-04
   1.0500    1.000E+00     1.100E+00        3.149E-01      8.000E-04
   1.1500    1.100E+00     1.200E+00        3.934E-01      6.000E-04
   1.2500    1.200E+00     1.300E+00        2.654E-01      6.000E-04
   1.3500    1.300E+00     1.400E+00        1.617E-01      5.000E-04
   1.4500    1.400E+00     1.500E+00        1.787E-01      7.000E-04
   1.5500    1.500E+00     1.600E+00        1.888E-01      8.000E-04
   1.6500    1.600E+00     1.700E+00        1.478E-01      6.000E-04
   1.7500    1.700E+00     1.800E+00        1.048E-01      7.000E-04
   1.8500    1.800E+00     1.900E+00        8.068E-02      8.200E-04
   1.9500    1.900E+00     2.000E+00        6.858E-02      5.100E-04
   2.0500    2.000E+00     2.100E+00        6.272E-02      6.600E-04
   2.1500    2.100E+00     2.200E+00        5.657E-02      9.300E-04
   2.2500    2.200E+00     2.300E+00        5.111E-02      8.800E-04
   2.3500    2.300E+00     2.400E+00        4.970E-02      8.800E-04
   2.4500    2.400E+00     2.500E+00        5.086E-02      1.410E-03
   2.5500    2.500E+00     2.600E+00        5.447E-02      1.200E-03
   2.6500    2.600E+00     2.700E+00        5.876E-02      7.600E-04
   2.7500    2.700E+00     2.800E+00        5.790E-02      1.340E-03
   2.8500    2.800E+00     2.900E+00        5.167E-02      1.360E-03
   2.9500    2.900E+00     3.000E+00        4.599E-02      1.100E-03
   3.0500    3.000E+00     3.100E+00        4.261E-02      1.130E-03
   3.1500    3.100E+00     3.200E+00        3.979E-02      1.070E-03
   3.2500    3.200E+00     3.300E+00        3.736E-02      8.500E-04
   3.3500    3.300E+00     3.400E+00        3.549E-02      9.600E-04
   3.4500    3.400E+00     3.500E+00        3.426E-02      1.230E-03
   3.5500    3.500E+00     3.600E+00        3.341E-02      1.220E-03
   3.6500    3.600E+00     3.700E+00        3.206E-02      1.220E-03
   3.7500    3.700E+00     3.800E+00        3.033E-02      1.100E-03
   3.8500    3.800E+00     3.900E+00        2.926E-02      9.700E-04
   3.9500    3.900E+00     4.000E+00        2.936E-02      1.360E-03
   4.1000    4.000E+00     4.200E+00        3.001E-02      1.320E-03
   4.3000    4.200E+00     4.400E+00        2.619E-02      2.160E-03
   4.5000    4.400E+00     4.600E+00        1.893E-02      2.270E-03
   4.7000    4.600E+00     4.800E+00        1.839E-02      3.510E-03
   4.9000    4.800E+00     5.000E+00        2.203E-02      4.640E-03
   5.1000    5.000E+00     5.200E+00        2.046E-02      3.370E-03
   5.3000    5.200E+00     5.400E+00        1.551E-02      6.590E-03
   5.5000    5.400E+00     5.600E+00        1.601E-02      2.730E-03
   5.7000    5.600E+00     5.800E+00        1.774E-02      4.900E-03
   5.9000    5.800E+00     6.000E+00        1.458E-02      3.670E-03
   6.5000    6.000E+00     7.000E+00        1.230E-02      2.170E-03
   7.5000    7.000E+00     8.000E+00        1.107E-02      2.380E-03
   8.5000    8.000E+00     9.000E+00        8.202E-03      1.431E-03
   9.5000    9.000E+00     1.000E+01        4.622E-03      7.990E-04
  10.5000    1.000E+01     1.100E+01        2.541E-03      3.760E-04
#  ----------------------------------------------------------
