#  Table 3.12  Measured gamma-ray leakage spectrum from a W sphere of 40 cm diameter.
#  ----------------------------------------------------------
#  Lower Energy  Upper Energy   Energy Spectrum     Error
#     [MeV]         [MeV]         [/MeV/S.n.]
#  ----------------------------------------------------------
   0.3500    3.000E-01     4.000E-01        1.420E-01      3.000E-04
   0.4500    4.000E-01     5.000E-01        1.019E-01      3.000E-04
   0.5500    5.000E-01     6.000E-01        1.104E-01      2.000E-04
   0.6500    6.000E-01     7.000E-01        1.494E-01      3.000E-04
   0.7500    7.000E-01     8.000E-01        1.283E-01      2.000E-04
   0.8500    8.000E-01     9.000E-01        1.072E-01      2.000E-04
   0.9500    9.000E-01     1.000E+00        1.074E-01      2.000E-04
   1.0500    1.000E+00     1.100E+00        1.137E-01      2.000E-04
   1.1500    1.100E+00     1.200E+00        1.037E-01      2.000E-04
   1.2500    1.200E+00     1.300E+00        8.927E-02      2.700E-04
   1.3500    1.300E+00     1.400E+00        7.513E-02      2.600E-04
   1.4500    1.400E+00     1.500E+00        6.712E-02      2.700E-04
   1.5500    1.500E+00     1.600E+00        6.409E-02      2.900E-04
   1.6500    1.600E+00     1.700E+00        6.050E-02      2.600E-04
   1.7500    1.700E+00     1.800E+00        5.554E-02      2.600E-04
   1.8500    1.800E+00     1.900E+00        5.191E-02      2.700E-04
   1.9500    1.900E+00     2.000E+00        4.947E-02      2.500E-04
   2.0500    2.000E+00     2.100E+00        4.716E-02      2.600E-04
   2.1500    2.100E+00     2.200E+00        4.489E-02      2.800E-04
   2.2500    2.200E+00     2.300E+00        4.251E-02      2.800E-04
   2.3500    2.300E+00     2.400E+00        3.970E-02      2.900E-04
   2.4500    2.400E+00     2.500E+00        3.642E-02      3.300E-04
   2.5500    2.500E+00     2.600E+00        3.327E-02      2.900E-04
   2.6500    2.600E+00     2.700E+00        3.080E-02      2.500E-04
   2.7500    2.700E+00     2.800E+00        2.889E-02      3.200E-04
   2.8500    2.800E+00     2.900E+00        2.714E-02      3.100E-04
   2.9500    2.900E+00     3.000E+00        2.537E-02      2.700E-04
   3.0500    3.000E+00     3.100E+00        2.354E-02      3.000E-04
   3.1500    3.100E+00     3.200E+00        2.164E-02      3.000E-04
   3.2500    3.200E+00     3.300E+00        1.974E-02      2.600E-04
   3.3500    3.300E+00     3.400E+00        1.792E-02      2.600E-04
   3.4500    3.400E+00     3.500E+00        1.626E-02      3.300E-04
   3.5500    3.500E+00     3.600E+00        1.478E-02      3.800E-04
   3.6500    3.600E+00     3.700E+00        1.345E-02      3.900E-04
   3.7500    3.700E+00     3.800E+00        1.222E-02      3.400E-04
   3.8500    3.800E+00     3.900E+00        1.120E-02      2.700E-04
   3.9500    3.900E+00     4.000E+00        1.048E-02      3.200E-04
   4.0500    4.000E+00     4.100E+00        9.991E-03      4.270E-04
   4.1500    4.100E+00     4.200E+00        9.499E-03      5.370E-04
   4.2500    4.200E+00     4.300E+00        8.719E-03      6.660E-04
   4.3500    4.300E+00     4.400E+00        7.607E-03      6.960E-04
   4.4500    4.400E+00     4.500E+00        6.430E-03      5.410E-04
   4.5500    4.500E+00     4.600E+00        5.466E-03      4.220E-04
   4.6500    4.600E+00     4.700E+00        4.880E-03      7.940E-04
   4.7500    4.700E+00     4.800E+00        4.757E-03      1.225E-03
   4.8500    4.800E+00     4.900E+00        4.945E-03      1.305E-03
   4.9500    4.900E+00     5.000E+00        5.061E-03      8.550E-04
   5.2500    5.000E+00     5.500E+00        3.586E-03      5.960E-04
   5.7500    5.500E+00     6.000E+00        2.673E-03      4.880E-04
   6.2500    6.000E+00     6.500E+00        2.548E-03      2.790E-04
   6.7500    6.500E+00     7.000E+00        1.277E-03      3.730E-04
   7.2500    7.000E+00     7.500E+00        1.651E-03      3.420E-04
   7.7500    7.500E+00     8.000E+00        9.984E-04      2.980E-04
   8.2500    8.000E+00     8.500E+00        1.113E-03      2.650E-04
   8.7500    8.500E+00     9.000E+00        4.566E-04      1.861E-04
   9.2500    9.000E+00     9.500E+00        4.841E-04      1.894E-04
   9.7500    9.500E+00     1.000E+01        2.774E-04      1.971E-04
  10.2500    1.000E+01     1.050E+01        3.672E-05      1.720E-04
  10.7500    1.050E+01     1.100E+01        1.371E-04      1.412E-04
#  ----------------------------------------------------------
