#  Table 3.9  Measured gamma-ray leakage spectrum from a Cu sphere of 60 cm diameter.
#  ----------------------------------------------------------
#  Lower Energy  Upper Energy   Energy Spectrum     Error
#     [MeV]         [MeV]         [/MeV/S.n.]
#  ----------------------------------------------------------
   0.5500    5.000E-01     6.000E-01        1.380E-01      4.300E-03
   0.6500    6.000E-01     7.000E-01        8.962E-02      1.700E-03
   0.7500    7.000E-01     8.000E-01        8.176E-02      7.000E-04
   0.8500    8.000E-01     9.000E-01        9.066E-02      2.600E-04
   0.9500    9.000E-01     1.000E+00        8.468E-02      1.700E-04
   1.0500    1.000E+00     1.100E+00        6.704E-02      2.100E-04
   1.1500    1.100E+00     1.200E+00        5.573E-02      4.000E-04
   1.2500    1.200E+00     1.300E+00        4.923E-02      6.200E-04
   1.3500    1.300E+00     1.400E+00        4.327E-02      5.000E-04
   1.4500    1.400E+00     1.500E+00        3.661E-02      2.100E-04
   1.5500    1.500E+00     1.600E+00        2.952E-02      5.500E-04
   1.6500    1.600E+00     1.700E+00        2.413E-02      7.100E-04
   1.7500    1.700E+00     1.800E+00        2.109E-02      6.000E-04
   1.8500    1.800E+00     1.900E+00        1.951E-02      4.100E-04
   1.9500    1.900E+00     2.000E+00        1.805E-02      2.400E-04
   2.0500    2.000E+00     2.100E+00        1.637E-02      2.800E-04
   2.1500    2.100E+00     2.200E+00        1.470E-02      4.100E-04
   2.2500    2.200E+00     2.300E+00        1.314E-02      5.500E-04
   2.3500    2.300E+00     2.400E+00        1.187E-02      7.000E-04
   2.4500    2.400E+00     2.500E+00        1.100E-02      7.000E-04
   2.5500    2.500E+00     2.600E+00        1.043E-02      4.600E-04
   2.6500    2.600E+00     2.700E+00        1.001E-02      2.000E-04
   2.7500    2.700E+00     2.800E+00        9.698E-03      3.420E-04
   2.8500    2.800E+00     2.900E+00        9.421E-03      5.180E-04
   2.9500    2.900E+00     3.000E+00        9.031E-03      6.610E-04
   3.0500    3.000E+00     3.100E+00        8.453E-03      7.360E-04
   3.1500    3.100E+00     3.200E+00        7.791E-03      6.770E-04
   3.2500    3.200E+00     3.300E+00        7.213E-03      4.330E-04
   3.3500    3.300E+00     3.400E+00        6.788E-03      3.850E-04
   3.4500    3.400E+00     3.500E+00        6.496E-03      1.008E-03
   3.5500    3.500E+00     3.600E+00        6.245E-03      1.597E-03
   3.6500    3.600E+00     3.700E+00        5.997E-03      1.764E-03
   3.7500    3.700E+00     3.800E+00        5.770E-03      1.300E-03
   3.8500    3.800E+00     3.900E+00        5.597E-03      4.750E-04
   3.9500    3.900E+00     4.000E+00        5.494E-03      1.218E-03
   4.2500    4.000E+00     4.500E+00        4.869E-03      8.390E-04
   4.7500    4.500E+00     5.000E+00        2.953E-03      8.000E-04
   5.2500    5.000E+00     5.500E+00        3.094E-03      8.520E-04
   5.7500    5.500E+00     6.000E+00        2.406E-03      4.900E-04
   6.2500    6.000E+00     6.500E+00        2.093E-03      3.200E-04
   6.7500    6.500E+00     7.000E+00        1.397E-03      3.110E-04
   7.2500    7.000E+00     7.500E+00        1.564E-03      2.330E-04
   7.7500    7.500E+00     8.000E+00        1.047E-03      1.560E-04
   8.2500    8.000E+00     8.500E+00        3.402E-04      1.241E-04
   8.7500    8.500E+00     9.000E+00        6.043E-04      6.560E-05
   9.2500    9.000E+00     9.500E+00        1.134E-04      4.260E-05
   9.7500    9.500E+00     1.000E+01        7.879E-05      2.452E-05
  10.2500    1.000E+01     1.050E+01        1.124E-04      1.640E-05
  10.7500    1.050E+01     1.100E+01        2.081E-05      7.030E-06
#  ----------------------------------------------------------
