#  Table 3.11  Measured gamma-ray leakage spectrum from a Mo sphere of 60 cm diameter.
#  ----------------------------------------------------------
#  Lower Energy  Upper Energy   Energy Spectrum     Error
#     [MeV]         [MeV]         [/MeV/S.n.]
#  ----------------------------------------------------------
   0.5500    5.000E-01     6.000E-01        5.591E-01      1.080E-02
   0.6500    6.000E-01     7.000E-01        3.766E-01      4.200E-03
   0.7500    7.000E-01     8.000E-01        3.860E-01      1.700E-03
   0.8500    8.000E-01     9.000E-01        4.088E-01      6.000E-04
   0.9500    9.000E-01     1.000E+00        3.071E-01      4.000E-04
   1.0500    1.000E+00     1.100E+00        2.165E-01      4.000E-04
   1.1500    1.100E+00     1.200E+00        1.811E-01      9.000E-04
   1.2500    1.200E+00     1.300E+00        1.623E-01      1.400E-03
   1.3500    1.300E+00     1.400E+00        1.442E-01      1.200E-03
   1.4500    1.400E+00     1.500E+00        1.288E-01      5.000E-04
   1.5500    1.500E+00     1.600E+00        1.135E-01      1.300E-03
   1.6500    1.600E+00     1.700E+00        9.452E-02      1.640E-03
   1.7500    1.700E+00     1.800E+00        7.849E-02      1.348E-03
   1.8500    1.800E+00     1.900E+00        6.932E-02      9.100E-04
   1.9500    1.900E+00     2.000E+00        6.412E-02      5.900E-04
   2.0500    2.000E+00     2.100E+00        6.046E-02      6.900E-04
   2.1500    2.100E+00     2.200E+00        5.673E-02      9.800E-04
   2.2500    2.200E+00     2.300E+00        5.220E-02      1.280E-03
   2.3500    2.300E+00     2.400E+00        4.776E-02      1.600E-03
   2.4500    2.400E+00     2.500E+00        4.416E-02      1.620E-03
   2.5500    2.500E+00     2.600E+00        4.100E-02      1.070E-03
   2.6500    2.600E+00     2.700E+00        3.765E-02      5.200E-04
   2.7500    2.700E+00     2.800E+00        3.422E-02      7.900E-04
   2.8500    2.800E+00     2.900E+00        3.133E-02      1.150E-03
   2.9500    2.900E+00     3.000E+00        2.936E-02      1.520E-03
   3.0500    3.000E+00     3.100E+00        2.812E-02      1.800E-03
   3.1500    3.100E+00     3.200E+00        2.711E-02      1.720E-03
   3.2500    3.200E+00     3.300E+00        2.593E-02      1.100E-03
   3.3500    3.300E+00     3.400E+00        2.458E-02      9.200E-04
   3.4500    3.400E+00     3.500E+00        2.331E-02      2.450E-03
   3.5500    3.500E+00     3.600E+00        2.218E-02      3.820E-03
   3.6500    3.600E+00     3.700E+00        2.086E-02      4.150E-03
   3.7500    3.700E+00     3.800E+00        1.906E-02      3.000E-03
   3.8500    3.800E+00     3.900E+00        1.681E-02      1.060E-03
   3.9500    3.900E+00     4.000E+00        1.446E-02      2.970E-03
   4.1000    4.000E+00     4.200E+00        1.181E-02      3.980E-03
   4.3000    4.200E+00     4.400E+00        1.102E-02      2.800E-03
   4.5000    4.400E+00     4.600E+00        1.184E-02      2.500E-03
   4.7000    4.600E+00     4.800E+00        1.079E-02      3.920E-03
   4.9000    4.800E+00     5.000E+00        8.580E-03      1.871E-03
   5.2500    5.000E+00     5.500E+00        7.651E-03      2.181E-03
   5.7500    5.500E+00     6.000E+00        4.846E-03      1.278E-03
   6.2500    6.000E+00     6.500E+00        6.191E-03      8.500E-04
   6.7500    6.500E+00     7.000E+00        3.833E-03      8.740E-04
   7.2500    7.000E+00     7.500E+00        3.266E-03      7.050E-04
   7.7500    7.500E+00     8.000E+00        2.567E-03      5.300E-04
   8.2500    8.000E+00     8.500E+00        1.749E-03      4.410E-04
   8.7500    8.500E+00     9.000E+00        1.296E-03      2.710E-04
   9.2500    9.000E+00     9.500E+00        9.457E-04      1.895E-04
   9.7500    9.500E+00     1.000E+01        3.341E-04      1.601E-04
  10.2500    1.000E+01     1.050E+01        6.341E-04      1.053E-04
  10.7500    1.050E+01     1.100E+01        1.515E-04      4.950E-05
#  ----------------------------------------------------------
