#  Table 3.2  Measured gamma-ray leakage spectrum from an Al sphere of 40 cm diameter.
#  ----------------------------------------------------------
#  Lower Energy  Upper Energy   Energy Spectrum     Error
#     [MeV]         [MeV]         [/MeV/S.n.]
#  ----------------------------------------------------------
   0.5500    5.000E-01     6.000E-01        2.025E-01      5.000E-04
   0.6500    6.000E-01     7.000E-01        1.810E-01      5.000E-04
   0.7500    7.000E-01     8.000E-01        1.655E-01      4.000E-04
   0.8500    8.000E-01     9.000E-01        2.199E-01      4.000E-04
   0.9500    9.000E-01     1.000E+00        2.042E-01      4.000E-04
   1.0500    1.000E+00     1.100E+00        1.810E-01      5.000E-04
   1.1500    1.100E+00     1.200E+00        1.364E-01      4.000E-04
   1.2500    1.200E+00     1.300E+00        1.203E-01      4.000E-04
   1.3500    1.300E+00     1.400E+00        1.159E-01      4.000E-04
   1.4500    1.400E+00     1.500E+00        1.033E-01      5.000E-04
   1.5500    1.500E+00     1.600E+00        8.601E-02      6.200E-04
   1.6500    1.600E+00     1.700E+00        8.412E-02      5.200E-04
   1.7500    1.700E+00     1.800E+00        1.108E-01      6.000E-04
   1.8500    1.800E+00     1.900E+00        1.251E-01      6.000E-04
   1.9500    1.900E+00     2.000E+00        9.976E-02      4.200E-04
   2.0500    2.000E+00     2.100E+00        7.944E-02      5.200E-04
   2.1500    2.100E+00     2.200E+00        9.377E-02      7.100E-04
   2.2500    2.200E+00     2.300E+00        1.112E-01      7.000E-04
   2.3500    2.300E+00     2.400E+00        9.630E-02      6.900E-04
   2.4500    2.400E+00     2.500E+00        6.832E-02      1.050E-03
   2.5500    2.500E+00     2.600E+00        5.362E-02      8.800E-04
   2.6500    2.600E+00     2.700E+00        4.855E-02      5.400E-04
   2.7500    2.700E+00     2.800E+00        4.804E-02      9.900E-04
   2.8500    2.800E+00     2.900E+00        5.524E-02      1.010E-03
   2.9500    2.900E+00     3.000E+00        6.851E-02      8.100E-04
   3.0500    3.000E+00     3.100E+00        7.359E-02      8.100E-04
   3.1500    3.100E+00     3.200E+00        6.203E-02      7.500E-04
   3.2500    3.200E+00     3.300E+00        4.470E-02      6.100E-04
   3.3500    3.300E+00     3.400E+00        3.335E-02      6.900E-04
   3.4500    3.400E+00     3.500E+00        2.885E-02      9.100E-04
   3.5500    3.500E+00     3.600E+00        2.788E-02      9.600E-04
   3.6500    3.600E+00     3.700E+00        2.800E-02      9.700E-04
   3.7500    3.700E+00     3.800E+00        2.814E-02      8.600E-04
   3.8500    3.800E+00     3.900E+00        2.828E-02      7.400E-04
   3.9500    3.900E+00     4.000E+00        2.817E-02      9.600E-04
   4.0500    4.000E+00     4.100E+00        2.716E-02      1.220E-03
   4.1500    4.100E+00     4.200E+00        2.539E-02      1.440E-03
   4.2500    4.200E+00     4.300E+00        2.371E-02      2.030E-03
   4.3500    4.300E+00     4.400E+00        2.253E-02      2.610E-03
   4.4500    4.400E+00     4.500E+00        2.190E-02      2.450E-03
   4.5500    4.500E+00     4.600E+00        2.213E-02      1.620E-03
   4.6500    4.600E+00     4.700E+00        2.346E-02      2.550E-03
   4.7500    4.700E+00     4.800E+00        2.536E-02      4.650E-03
   4.8500    4.800E+00     4.900E+00        2.654E-02      5.470E-03
   4.9500    4.900E+00     5.000E+00        2.550E-02      3.830E-03
   5.2500    5.000E+00     5.500E+00        1.596E-02      2.320E-03
   5.7500    5.500E+00     6.000E+00        1.899E-02      1.860E-03
   6.2500    6.000E+00     6.500E+00        1.630E-02      1.360E-03
   6.7500    6.500E+00     7.000E+00        6.569E-03      2.461E-03
   7.2500    7.000E+00     7.500E+00        1.641E-02      2.300E-03
   7.7500    7.500E+00     8.000E+00        4.856E-03      1.785E-03
   8.2500    8.000E+00     8.500E+00        9.137E-03      1.409E-03
   8.7500    8.500E+00     9.000E+00        5.316E-03      6.960E-04
   9.2500    9.000E+00     9.500E+00        1.660E-03      5.890E-04
   9.7500    9.500E+00     1.000E+01        3.036E-03      4.050E-04
  10.2500    1.000E+01     1.050E+01        1.489E-03      2.410E-04
  10.7500    1.050E+01     1.100E+01        6.201E-04      1.409E-04
#  ----------------------------------------------------------
